#Wavelength (um) Specific flux (relative Jy)
      1.00000  0.000697475
      1.01000  0.000706030
      1.02000  0.000714629
      1.03000  0.000723273
      1.04000  0.000731961
      1.05000  0.000740695
      1.06000  0.000749475
      1.07000  0.000758302
      1.08000  0.000767175
      1.09000  0.000776096
      1.10000  0.000785065
      1.11000  0.000794082
      1.12000  0.000803149
      1.13000  0.000812265
      1.14000  0.000821431
      1.15000  0.000830647
      1.16000  0.000839915
      1.17000  0.000849235
      1.18000  0.000858607
      1.19000  0.000868032
      1.20000  0.000877510
      1.21000  0.000887042
      1.22000  0.000896630
      1.23000  0.000906272
      1.24000  0.000915970
      1.25000  0.000925725
      1.26000  0.000935537
      1.27000  0.000945406
      1.28000  0.000955334
      1.29000  0.000965321
      1.30000  0.000975368
      1.31000  0.000985475
      1.32000  0.000995643
      1.33000   0.00100587
      1.34000   0.00101617
      1.35000   0.00102652
      1.36000   0.00103694
      1.37000   0.00104742
      1.38000   0.00105797
      1.39000   0.00106859
      1.40000   0.00107927
      1.41000   0.00109002
      1.42000   0.00110083
      1.43000   0.00111172
      1.44000   0.00112268
      1.45000   0.00113370
      1.46000   0.00114480
      1.47000   0.00115597
      1.48000   0.00116721
      1.49000   0.00117853
      1.50000   0.00118992
      1.51000   0.00120139
      1.52000   0.00121293
      1.53000   0.00122455
      1.54000   0.00123625
      1.55000   0.00124802
      1.56000   0.00125988
      1.57000   0.00127182
      1.58000   0.00128384
      1.59000   0.00129594
      1.60000   0.00130813
      1.61000   0.00132040
      1.62000   0.00133275
      1.63000   0.00134519
      1.64000   0.00135772
      1.65000   0.00137034
      1.66000   0.00138305
      1.67000   0.00139585
      1.68000   0.00140874
      1.69000   0.00142173
      1.70000   0.00143480
      1.71000   0.00144798
      1.72000   0.00146124
      1.73000   0.00147461
      1.74000   0.00148808
      1.75000   0.00150164
      1.76000   0.00151530
      1.77000   0.00152907
      1.78000   0.00154294
      1.79000   0.00155692
      1.80000   0.00157100
      1.81000   0.00158518
      1.82000   0.00159948
      1.83000   0.00161388
      1.84000   0.00162840
      1.85000   0.00164303
      1.86000   0.00165777
      1.87000   0.00167263
      1.88000   0.00168760
      1.89000   0.00170269
      1.90000   0.00171790
      1.91000   0.00173323
      1.92000   0.00174869
      1.93000   0.00176426
      1.94000   0.00177997
      1.95000   0.00179580
      1.96000   0.00181175
      1.97000   0.00182784
      1.98000   0.00184406
      1.99000   0.00186041
      2.00000   0.00187690
      2.01000   0.00189352
      2.02000   0.00191029
      2.03000   0.00192719
      2.04000   0.00194423
      2.05000   0.00196142
      2.06000   0.00197875
      2.07000   0.00199623
      2.08000   0.00201368
      2.09000   0.00203098
      2.10000   0.00204841
      2.11000   0.00206599
      2.12000   0.00208371
      2.13000   0.00210158
      2.14000   0.00211959
      2.15000   0.00213776
      2.16000   0.00215571
      2.17000   0.00217371
      2.18000   0.00219184
      2.19000   0.00221012
      2.20000   0.00222855
      2.21000   0.00224712
      2.22000   0.00226584
      2.23000   0.00228465
      2.24000   0.00230322
      2.25000   0.00232194
      2.26000   0.00234081
      2.27000   0.00235982
      2.28000   0.00237898
      2.29000   0.00239829
      2.30000   0.00241775
      2.31000   0.00243713
      2.32000   0.00245646
      2.33000   0.00247594
      2.34000   0.00249557
      2.35000   0.00251534
      2.36000   0.00253527
      2.37000   0.00255535
      2.38000   0.00257559
      2.39000   0.00259560
      2.40000   0.00261572
      2.41000   0.00263600
      2.42000   0.00265643
      2.43000   0.00267701
      2.44000   0.00269775
      2.45000   0.00271864
      2.46000   0.00273957
      2.47000   0.00276038
      2.48000   0.00278134
      2.49000   0.00280246
      2.50000   0.00282373
      2.51000   0.00284516
      2.52000   0.00286675
      2.53000   0.00288851
      2.54000   0.00291015
      2.55000   0.00293184
      2.56000   0.00295368
      2.57000   0.00297569
      2.58000   0.00299786
      2.59000   0.00302019
      2.60000   0.00304268
      2.61000   0.00306532
      2.62000   0.00308777
      2.63000   0.00311039
      2.64000   0.00313317
      2.65000   0.00315612
      2.66000   0.00317923
      2.67000   0.00320252
      2.68000   0.00322598
      2.69000   0.00324944
      2.70000   0.00327288
      2.71000   0.00329649
      2.72000   0.00332026
      2.73000   0.00354334
      2.74000   0.00356760
      2.75000   0.00359202
      2.76000   0.00361661
      2.77000   0.00364113
      2.78000   0.00366578
      2.79000   0.00369059
      2.80000   0.00371556
      2.81000   0.00374071
      2.82000   0.00376603
      2.83000   0.00379152
      2.84000   0.00381713
      2.85000   0.00384270
      2.86000   0.00386844
      2.87000   0.00389436
      2.88000   0.00392046
      2.89000   0.00394674
      2.90000   0.00397319
      2.91000   0.00399983
      2.92000   0.00402649
      2.93000   0.00405324
      2.94000   0.00408017
      2.95000   0.00410728
      2.96000   0.00413458
      2.97000   0.00416207
      2.98000   0.00418975
      2.99000   0.00421763
      3.00000   0.00424544
      3.01000   0.00427345
      3.02000   0.00430165
      3.03000   0.00433005
      3.04000   0.00435865
      3.05000   0.00438745
      3.06000   0.00441645
      3.07000   0.00444556
      3.08000   0.00447473
      3.09000   0.00450410
      3.10000   0.00453368
      3.11000   0.00456347
      3.12000   0.00459347
      3.13000   0.00462368
      3.14000   0.00465411
      3.15000   0.00468457
      3.16000   0.00471520
      3.17000   0.00474605
      3.18000   0.00477711
      3.19000   0.00480840
      3.20000   0.00483992
      3.21000   0.00487166
      3.22000   0.00490360
      3.23000   0.00493557
      3.24000   0.00496778
      3.25000   0.00500022
      3.26000   0.00503290
      3.27000   0.00506581
      3.28000   0.00509897
      3.29000   0.00513237
      3.30000   0.00516590
      3.31000   0.00519957
      3.32000   0.00523349
      3.33000   0.00526766
      3.34000   0.00530209
      3.35000   0.00533677
      3.36000   0.00537171
      3.37000   0.00540692
      3.38000   0.00544218
      3.39000   0.00547770
      3.40000   0.00551348
      3.41000   0.00554954
      3.42000   0.00558587
      3.43000   0.00562247
      3.44000   0.00565935
      3.45000   0.00569645
      3.46000   0.00573369
      3.47000   0.00577121
      3.48000   0.00580903
      3.49000   0.00584713
      3.50000   0.00588553
      3.51000   0.00592423
      3.52000   0.00596323
      3.53000   0.00600239
      3.54000   0.00604180
      3.55000   0.00608151
      3.56000   0.00612154
      3.57000   0.00616189
      3.58000   0.00620255
      3.59000   0.00624354
      3.60000   0.00628484
      3.61000   0.00632628
      3.62000   0.00636806
      3.63000   0.00641017
      3.64000   0.00645262
      3.65000   0.00649542
      3.66000   0.00653856
      3.67000   0.00653478
      3.68000   0.00657911
      3.69000   0.00662368
      3.70000   0.00666862
      3.71000   0.00671394
      3.72000   0.00675965
      3.73000   0.00680574
      3.74000   0.00685222
      3.75000   0.00689909
      3.76000   0.00694617
      3.77000   0.00699361
      3.78000   0.00704145
      3.79000   0.00712980
      3.80000   0.00717784
      3.81000   0.00722628
      3.82000   0.00727514
      3.83000   0.00732437
      3.84000   0.00737388
      3.85000   0.00742382
      3.86000   0.00747420
      3.87000   0.00752501
      3.88000   0.00757627
      3.89000   0.00762798
      3.90000   0.00768014
      3.91000   0.00773265
      3.92000   0.00778555
      3.93000   0.00783893
      3.94000   0.00789278
      3.95000   0.00794711
      3.96000   0.00800193
      3.97000   0.00805726
      3.98000   0.00811308
      3.99000   0.00816922
      4.00000   0.00822588
      4.01000   0.00828306
      4.02000   0.00834077
      4.03000   0.00839901
      4.04000   0.00845779
      4.05000   0.00851712
      4.06000   0.00857694
      4.07000   0.00863720
      4.08000   0.00869804
      4.09000   0.00875945
      4.10000   0.00882144
      4.11000   0.00888403
      4.12000   0.00894722
      4.13000   0.00901102
      4.14000   0.00907530
      4.15000   0.00914016
      4.16000   0.00920565
      4.17000   0.00927179
      4.18000   0.00933858
      4.19000   0.00940603
      4.20000   0.00947415
      4.21000   0.00954292
      4.22000   0.00961222
      4.23000   0.00968223
      4.24000   0.00975294
      4.25000   0.00982437
      4.26000   0.00989654
      4.27000   0.00996944
      4.28000    0.0100431
      4.29000    0.0101174
      4.30000    0.0101924
      4.31000    0.0102682
      4.32000    0.0103448
      4.33000    0.0104222
      4.34000    0.0105004
      4.35000    0.0105795
      4.36000    0.0106593
      4.37000    0.0105162
      4.38000    0.0105972
      4.39000    0.0106791
      4.40000    0.0107619
      4.41000    0.0108456
      4.42000    0.0109302
      4.43000    0.0110158
      4.44000    0.0111022
      4.45000    0.0111895
      4.46000    0.0112777
      4.47000    0.0113669
      4.48000    0.0114572
      4.49000    0.0115485
      4.50000    0.0116408
      4.51000    0.0117342
      4.52000    0.0118285
      4.53000    0.0119239
      4.54000    0.0120204
      4.55000    0.0121180
      4.56000    0.0122168
      4.57000    0.0123167
      4.58000    0.0124179
      4.59000    0.0125203
      4.60000    0.0126237
      4.61000    0.0127283
      4.62000    0.0128343
      4.63000    0.0129415
      4.64000    0.0130501
      4.65000    0.0131601
      4.66000    0.0132715
      4.67000    0.0133841
      4.68000    0.0134981
      4.69000    0.0136135
      4.70000    0.0137304
      4.71000    0.0138488
      4.72000    0.0139688
      4.73000    0.0140904
      4.74000    0.0142135
      4.75000    0.0143382
      4.76000    0.0144644
      4.77000    0.0145923
      4.78000    0.0147220
      4.79000    0.0148535
      4.80000    0.0149868
      4.81000    0.0151220
      4.82000    0.0152589
      4.83000    0.0153977
      4.84000    0.0155383
      4.85000    0.0156810
      4.86000    0.0158258
      4.87000    0.0159727
      4.88000    0.0161217
      4.89000    0.0162729
      4.90000    0.0164262
      4.91000    0.0165817
      4.92000    0.0167395
      4.93000    0.0168997
      4.94000    0.0167044
      4.95000    0.0168645
      4.96000    0.0170270
      4.97000    0.0171921
      4.98000    0.0173595
      4.99000    0.0175297
      5.00000    0.0177025
      5.01000    0.0178782
      5.02000    0.0180568
      5.03000    0.0182383
      5.04000    0.0184228
      5.05000    0.0186104
      5.06000    0.0188010
      5.07000    0.0189948
      5.08000    0.0196303
      5.09000    0.0198374
      5.10000    0.0200482
      5.11000    0.0202628
      5.12000    0.0204812
      5.13000    0.0207034
      5.14000    0.0209296
      5.15000    0.0211600
      5.16000    0.0213947
      5.17000    0.0216339
      5.18000    0.0218776
      5.19000    0.0221261
      5.20000    0.0223794
      5.21000    0.0226375
      5.22000    0.0229008
      5.23000    0.0231694
      5.24000    0.0234435
      5.25000    0.0237234
      5.26000    0.0240090
      5.27000    0.0243008
      5.28000    0.0245987
      5.29000    0.0249029
      5.30000    0.0252139
      5.31000    0.0249095
      5.32000    0.0252245
      5.33000    0.0255468
      5.34000    0.0258766
      5.35000    0.0262141
      5.36000    0.0265595
      5.37000    0.0269132
      5.38000    0.0272757
      5.39000    0.0276472
      5.40000    0.0280281
      5.41000    0.0284188
      5.42000    0.0288198
      5.43000    0.0292313
      5.44000    0.0296536
      5.45000    0.0300876
      5.46000    0.0305336
      5.47000    0.0309923
      5.48000    0.0314641
      5.49000    0.0319498
      5.50000    0.0324499
      5.51000    0.0329650
      5.52000    0.0334958
      5.53000    0.0340433
      5.54000    0.0346083
      5.55000    0.0351917
      5.56000    0.0357944
      5.57000    0.0364175
      5.58000    0.0370621
      5.59000    0.0377290
      5.60000    0.0384199
      5.61000    0.0391360
      5.62000    0.0398790
      5.63000    0.0406502
      5.64000    0.0425957
      5.65000    0.0434548
      5.66000    0.0443486
      5.67000    0.0452794
      5.68000    0.0462496
      5.69000    0.0459782
      5.70000    0.0470044
      5.71000    0.0480772
      5.72000    0.0492004
      5.73000    0.0503772
      5.74000    0.0516115
      5.75000    0.0529079
      5.76000    0.0542712
      5.77000    0.0557067
      5.78000    0.0572203
      5.79000    0.0604935
      5.80000    0.0622344
      5.81000    0.0640776
      5.82000    0.0660320
      5.83000    0.0681081
      5.84000    0.0703172
      5.85000    0.0726720
      5.86000    0.0751868
      5.87000    0.0778775
      5.88000    0.0807621
      5.89000    0.0838606
      5.90000    0.0871962
      5.91000    0.0907954
      5.92000    0.0946882
      5.93000    0.0989086
      5.94000     0.103496
      5.95000     0.108495
      5.96000     0.113957
      5.97000     0.119942
      5.98000     0.126519
      5.99000     0.133767
      6.00000     0.141781
      6.01000     0.150668
      6.02000     0.160553
      6.03000     0.171584
      6.04000     0.183929
      6.05000     0.197784
      6.06000     0.213379
      6.07000     0.230971
      6.08000     0.250852
      6.09000     0.273343
      6.10000     0.298785
      6.11000     0.327517
      6.12000     0.359842
      6.13000     0.395968
      6.14000     0.435907
      6.15000     0.479335
      6.16000     0.525429
      6.17000     0.572664
      6.18000     0.618678
      6.19000     0.660289
      6.20000     0.693797
      6.21000     0.715634
      6.22000     0.723204
      6.23000     0.715637
      6.24000     0.694061
      6.25000     0.661250
      6.26000     0.620839
      6.27000     0.576484
      6.28000     0.531264
      6.29000     0.487427
      6.30000     0.446400
      6.31000     0.408936
      6.32000     0.375305
      6.33000     0.345466
      6.34000     0.319201
      6.35000     0.296202
      6.36000     0.276132
      6.37000     0.258655
      6.38000     0.243458
      6.39000     0.230258
      6.40000     0.218802
      6.41000     0.208871
      6.42000     0.200273
      6.43000     0.192844
      6.44000     0.186444
      6.45000     0.180951
      6.46000     0.176262
      6.47000     0.172285
      6.48000     0.163576
      6.49000     0.160865
      6.50000     0.154170
      6.51000     0.152036
      6.52000     0.148818
      6.53000     0.147598
      6.54000     0.147894
      6.55000     0.147140
      6.56000     0.146644
      6.57000     0.146376
      6.58000     0.145558
      6.59000     0.145760
      6.60000     0.146106
      6.61000     0.147674
      6.62000     0.148418
      6.63000     0.149236
      6.64000     0.150110
      6.65000     0.151022
      6.66000     0.151957
      6.67000     0.152906
      6.68000     0.153857
      6.69000     0.154806
      6.70000     0.155748
      6.71000     0.156683
      6.72000     0.157614
      6.73000     0.158543
      6.74000     0.170990
      6.75000     0.171664
      6.76000     0.172344
      6.77000     0.166938
      6.78000     0.173778
      6.79000     0.174562
      6.80000     0.175407
      6.81000     0.176326
      6.82000     0.177333
      6.83000     0.178438
      6.84000     0.179651
      6.85000     0.180979
      6.86000     0.182431
      6.87000     0.184013
      6.88000     0.185729
      6.89000     0.187584
      6.90000     0.189581
      6.91000     0.191725
      6.92000     0.194019
      6.93000     0.189166
      6.94000     0.191656
      6.95000     0.200741
      6.96000     0.203622
      6.97000     0.200035
      6.98000     0.203137
      6.99000     0.206396
      7.00000     0.217949
      7.01000     0.221662
      7.02000     0.225541
      7.03000     0.229586
      7.04000     0.233798
      7.05000     0.238181
      7.06000     0.242737
      7.07000     0.247469
      7.08000     0.252379
      7.09000     0.257470
      7.10000     0.261192
      7.11000     0.266611
      7.12000     0.272218
      7.13000     0.278019
      7.14000     0.284017
      7.15000     0.290217
      7.16000     0.296625
      7.17000     0.303247
      7.18000     0.310089
      7.19000     0.317154
      7.20000     0.324457
      7.21000     0.332006
      7.22000     0.339813
      7.23000     0.347890
      7.24000     0.356251
      7.25000     0.364914
      7.26000     0.364637
      7.27000     0.373960
      7.28000     0.383663
      7.29000     0.393772
      7.30000     0.404318
      7.31000     0.415334
      7.32000     0.426860
      7.33000     0.438935
      7.34000     0.451597
      7.35000     0.476491
      7.36000     0.490385
      7.37000     0.505004
      7.38000     0.520403
      7.39000     0.536640
      7.40000     0.553771
      7.41000     0.571845
      7.42000     0.590907
      7.43000     0.611006
      7.44000     0.632167
      7.45000     0.654396
      7.46000     0.677674
      7.47000     0.701945
      7.48000     0.727111
      7.49000     0.753006
      7.50000     0.779424
      7.51000     0.806091
      7.52000     0.833452
      7.53000     0.860388
      7.54000     0.886299
      7.55000     0.910651
      7.56000     0.932893
      7.57000     0.954998
      7.58000     0.970898
      7.59000     0.983429
      7.60000     0.992402
      7.61000     0.998660
      7.62000      1.00000
      7.63000     0.998097
      7.64000     0.993378
      7.65000     0.986372
      7.66000     0.977668
      7.67000     0.967840
      7.68000     0.957424
      7.69000     0.946892
      7.70000     0.936629
      7.71000     0.926923
      7.72000     0.917943
      7.73000     0.909806
      7.74000     0.898515
      7.75000     0.892485
      7.76000     0.887079
      7.77000     0.882096
      7.78000     0.877292
      7.79000     0.872391
      7.80000     0.870942
      7.81000     0.865240
      7.82000     0.858593
      7.83000     0.850774
      7.84000     0.841602
      7.85000     0.830957
      7.86000     0.818778
      7.87000     0.805048
      7.88000     0.789847
      7.89000     0.773314
      7.90000     0.755615
      7.91000     0.736954
      7.92000     0.717553
      7.93000     0.697645
      7.94000     0.677457
      7.95000     0.657163
      7.96000     0.637009
      7.97000     0.617173
      7.98000     0.597808
      7.99000     0.579041
      8.00000     0.560977
      8.01000     0.543698
      8.02000     0.527250
      8.03000     0.511667
      8.04000     0.497006
      8.05000     0.483285
      8.06000     0.470509
      8.07000     0.458675
      8.08000     0.447777
      8.09000     0.437801
      8.10000     0.428730
      8.11000     0.420542
      8.12000     0.413218
      8.13000     0.406731
      8.14000     0.401057
      8.15000     0.396165
      8.16000     0.392026
      8.17000     0.388584
      8.18000     0.385716
      8.19000     0.391430
      8.20000     0.389707
      8.21000     0.377916
      8.22000     0.377023
      8.23000     0.376566
      8.24000     0.376481
      8.25000     0.376642
      8.26000     0.376991
      8.27000     0.377503
      8.28000     0.378110
      8.29000     0.378750
      8.30000     0.379373
      8.31000     0.379937
      8.32000     0.380419
      8.33000     0.380810
      8.34000     0.381123
      8.35000     0.381390
      8.36000     0.381659
      8.37000     0.381995
      8.38000     0.382473
